#  "== FILTER DATA - LAMBDA 9 SPECTROPHOTOMETER =="
#  "   KITT PEAK NATIONAL OBSERVATORY - NOAO"
#   ------------------------------------------------
#  "FILTER: KP1468 TEMP 23C               "
#  "DATE: "" 7/14/95"   "TIME: "" 9:16:13"
#  " CWL= "  6567.35A  "FWHM= "   84.50A  "TMAX= "71.83 %
#  "TCUTOFF= " 2.00 %  "SLITSIZE= " 1 A
#  
#  
#  
#  
#  "NPTS= " 441     "DISP= " 1.00A/INTERVAL
 6360.00   0.001601 
 6361.00   0.001879 
 6362.00   0.002367 
 6363.00   0.002088 
 6364.00   0.002088 
 6365.00   0.002227 
 6366.00   0.002019 
 6367.00   0.002436 
 6368.00   0.002227 
 6369.00   0.002297 
 6370.00   0.002297 
 6371.00   0.002367 
 6372.00   0.002436 
 6373.00   0.002784 
 6374.00   0.002993 
 6375.00   0.002854 
 6376.00   0.002575 
 6377.00   0.002436 
 6378.00   0.002923 
 6379.00   0.002784 
 6380.00   0.002715 
 6381.00   0.003132 
 6382.00   0.002993 
 6383.00   0.003341 
 6384.00   0.003202 
 6385.00   0.003411 
 6386.00   0.003063 
 6387.00   0.003202 
 6388.00   0.003411 
 6389.00   0.003480 
 6390.00   0.003967 
 6391.00   0.003550 
 6392.00   0.003759 
 6393.00   0.004176 
 6394.00   0.003689 
 6395.00   0.003967 
 6396.00   0.004246 
 6397.00   0.004176 
 6398.00   0.004455 
 6399.00   0.004663 
 6400.00   0.004385 
 6401.00   0.004663 
 6402.00   0.004942 
 6403.00   0.004663 
 6404.00   0.005429 
 6405.00   0.005081 
 6406.00   0.005220 
 6407.00   0.004942 
 6408.00   0.005081 
 6409.00   0.005499 
 6410.00   0.004872 
 6411.00   0.005499 
 6412.00   0.006264 
 6413.00   0.005568 
 6414.00   0.005916 
 6415.00   0.006334 
 6416.00   0.006195 
 6417.00   0.007517 
 6418.00   0.006891 
 6419.00   0.007169 
 6420.00   0.006682 
 6421.00   0.007587 
 6422.00   0.007587 
 6423.00   0.008144 
 6424.00   0.007865 
 6425.00   0.007865 
 6426.00   0.008283 
 6427.00   0.008770 
 6428.00   0.009188 
 6429.00   0.008700 
 6430.00   0.009049 
 6431.00   0.009953 
 6432.00   0.009884 
 6433.00   0.009884 
 6434.00   0.010997 
 6435.00   0.011276 
 6436.00   0.010928 
 6437.00   0.011693 
 6438.00   0.012181 
 6439.00   0.012320 
 6440.00   0.012807 
 6441.00   0.012877 
 6442.00   0.013573 
 6443.00   0.013921 
 6444.00   0.014965 
 6445.00   0.015452 
 6446.00   0.016914 
 6447.00   0.015243 
 6448.00   0.016427 
 6449.00   0.017192 
 6450.00   0.018654 
 6451.00   0.017819 
 6452.00   0.019002 
 6453.00   0.018584 
 6454.00   0.019976 
 6455.00   0.021716 
 6456.00   0.022134 
 6457.00   0.022412 
 6458.00   0.023109 
 6459.00   0.025405 
 6460.00   0.024709 
 6461.00   0.025753 
 6462.00   0.026658 
 6463.00   0.028120 
 6464.00   0.028816 
 6465.00   0.030069 
 6466.00   0.030069 
 6467.00   0.032435 
 6468.00   0.034872 
 6469.00   0.036751 
 6470.00   0.037029 
 6471.00   0.038630 
 6472.00   0.039117 
 6473.00   0.041414 
 6474.00   0.042946 
 6475.00   0.045799 
 6476.00   0.047122 
 6477.00   0.048375 
 6478.00   0.048444 
 6479.00   0.052690 
 6480.00   0.054778 
 6481.00   0.058119 
 6482.00   0.061460 
 6483.00   0.065149 
 6484.00   0.064732 
 6485.00   0.069117 
 6486.00   0.072110 
 6487.00   0.076773 
 6488.00   0.079488 
 6489.00   0.083177 
 6490.00   0.089163 
 6491.00   0.089302 
 6492.00   0.096401 
 6493.00   0.101065 
 6494.00   0.104963 
 6495.00   0.110392 
 6496.00   0.116726 
 6497.00   0.125148 
 6498.00   0.129324 
 6499.00   0.135937 
 6500.00   0.140739 
 6501.00   0.152572 
 6502.00   0.156122 
 6503.00   0.169903 
 6504.00   0.175263 
 6505.00   0.186330 
 6506.00   0.198650 
 6507.00   0.207907 
 6508.00   0.222315 
 6509.00   0.231990 
 6510.00   0.244310 
 6511.00   0.252106 
 6512.00   0.268741 
 6513.00   0.286838 
 6514.00   0.301664 
 6515.00   0.320387 
 6516.00   0.340294 
 6517.00   0.348159 
 6518.00   0.367509 
 6519.00   0.387624 
 6520.00   0.407253 
 6521.00   0.423749 
 6522.00   0.440593 
 6523.00   0.482912 
 6524.00   0.487993 
 6525.00   0.507830 
 6526.00   0.534976 
 6527.00   0.565323 
 6528.00   0.597968 
 6529.00   0.613141 
 6530.00   0.636737 
 6531.00   0.666179 
 6532.00   0.676550 
 6533.00   0.704253 
 6534.00   0.725482 
 6535.00   0.765992 
 6536.00   0.781026 
 6537.00   0.804622 
 6538.00   0.810260 
 6539.00   0.823067 
 6540.00   0.836292 
 6541.00   0.855989 
 6542.00   0.872068 
 6543.00   0.889539 
 6544.00   0.901580 
 6545.00   0.908332 
 6546.00   0.933528 
 6547.00   0.917241 
 6548.00   0.935199 
 6549.00   0.951904 
 6550.00   0.941045 
 6551.00   0.956498 
 6552.00   0.962623 
 6553.00   0.965894 
 6554.00   0.949259 
 6555.00   0.963597 
 6556.00   0.969931 
 6557.00   0.976474 
 6558.00   0.971602 
 6559.00   0.959073 
 6560.00   0.981416 
 6561.00   0.973272 
 6562.00   0.980302 
 6563.00   0.971045 
 6564.00   0.983365 
 6565.00   0.983225 
 6566.00   0.975012 
 6567.00   0.985174 
 6568.00   0.990116 
 6569.00   0.994084 
 6570.00   0.982181 
 6571.00   0.980163 
 6572.00   0.985592 
 6573.00   0.988446 
 6574.00   0.996381 
 6575.00   0.989559 
 6576.00   1.000000 
 6577.00   0.990743 
 6578.00   0.986845 
 6579.00   0.971671 
 6580.00   0.973829 
 6581.00   0.976752 
 6582.00   0.969026 
 6583.00   0.976961 
 6584.00   0.961996 
 6585.00   0.957890 
 6586.00   0.953853 
 6587.00   0.959560 
 6588.00   0.931579 
 6589.00   0.909445 
 6590.00   0.920303 
 6591.00   0.908610 
 6592.00   0.863994 
 6593.00   0.859887 
 6594.00   0.845270 
 6595.00   0.829888 
 6596.00   0.808311 
 6597.00   0.783323 
 6598.00   0.767801 
 6599.00   0.743231 
 6600.00   0.709612 
 6601.00   0.681492 
 6602.00   0.666040 
 6603.00   0.648848 
 6604.00   0.624835 
 6605.00   0.581611 
 6606.00   0.560033 
 6607.00   0.545417 
 6608.00   0.518201 
 6609.00   0.503167 
 6610.00   0.474421 
 6611.00   0.454653 
 6612.00   0.427716 
 6613.00   0.410733 
 6614.00   0.389643 
 6615.00   0.367926 
 6616.00   0.355050 
 6617.00   0.332985 
 6618.00   0.318438 
 6619.00   0.301037 
 6620.00   0.285307 
 6621.00   0.275771 
 6622.00   0.261711 
 6623.00   0.239229 
 6624.00   0.228231 
 6625.00   0.220993 
 6626.00   0.201434 
 6627.00   0.200947 
 6628.00   0.188070 
 6629.00   0.176794 
 6630.00   0.168511 
 6631.00   0.161133 
 6632.00   0.150901 
 6633.00   0.144219 
 6634.00   0.140043 
 6635.00   0.131551 
 6636.00   0.124243 
 6637.00   0.117213 
 6638.00   0.108930 
 6639.00   0.105450 
 6640.00   0.102387 
 6641.00   0.098838 
 6642.00   0.092712 
 6643.00   0.088675 
 6644.00   0.084082 
 6645.00   0.081437 
 6646.00   0.078096 
 6647.00   0.073711 
 6648.00   0.071344 
 6649.00   0.068073 
 6650.00   0.064384 
 6651.00   0.064105 
 6652.00   0.059790 
 6653.00   0.056240 
 6654.00   0.054709 
 6655.00   0.053525 
 6656.00   0.049836 
 6657.00   0.046913 
 6658.00   0.044895 
 6659.00   0.044199 
 6660.00   0.041484 
 6661.00   0.042598 
 6662.00   0.039048 
 6663.00   0.037447 
 6664.00   0.034732 
 6665.00   0.034872 
 6666.00   0.034524 
 6667.00   0.033480 
 6668.00   0.030765 
 6669.00   0.031113 
 6670.00   0.029442 
 6671.00   0.027424 
 6672.00   0.027076 
 6673.00   0.028468 
 6674.00   0.026728 
 6675.00   0.024849 
 6676.00   0.024988 
 6677.00   0.022552 
 6678.00   0.022064 
 6679.00   0.022134 
 6680.00   0.021716 
 6681.00   0.020881 
 6682.00   0.019489 
 6683.00   0.019489 
 6684.00   0.018723 
 6685.00   0.017610 
 6686.00   0.016079 
 6687.00   0.016705 
 6688.00   0.016357 
 6689.00   0.016844 
 6690.00   0.015591 
 6691.00   0.014826 
 6692.00   0.014269 
 6693.00   0.013573 
 6694.00   0.013573 
 6695.00   0.013434 
 6696.00   0.013782 
 6697.00   0.013086 
 6698.00   0.013573 
 6699.00   0.011972 
 6700.00   0.012041 
 6701.00   0.010371 
 6702.00   0.010580 
 6703.00   0.010649 
 6704.00   0.009953 
 6705.00   0.009745 
 6706.00   0.010371 
 6707.00   0.009536 
 6708.00   0.009605 
 6709.00   0.009466 
 6710.00   0.008561 
 6711.00   0.008700 
 6712.00   0.007378 
 6713.00   0.007796 
 6714.00   0.008144 
 6715.00   0.007796 
 6716.00   0.007656 
 6717.00   0.007726 
 6718.00   0.006960 
 6719.00   0.006891 
 6720.00   0.007448 
 6721.00   0.006821 
 6722.00   0.006891 
 6723.00   0.006404 
 6724.00   0.006473 
 6725.00   0.005847 
 6726.00   0.006125 
 6727.00   0.005499 
 6728.00   0.005708 
 6729.00   0.005011 
 6730.00   0.004942 
 6731.00   0.004107 
 6732.00   0.005081 
 6733.00   0.005081 
 6734.00   0.005011 
 6735.00   0.005220 
 6736.00   0.004594 
 6737.00   0.004942 
 6738.00   0.004385 
 6739.00   0.005081 
 6740.00   0.004594 
 6741.00   0.004107 
 6742.00   0.003967 
 6743.00   0.004107 
 6744.00   0.003411 
 6745.00   0.004037 
 6746.00   0.003271 
 6747.00   0.003619 
 6748.00   0.004037 
 6749.00   0.004037 
 6750.00   0.003619 
 6751.00   0.003341 
 6752.00   0.003550 
 6753.00   0.003550 
 6754.00   0.003411 
 6755.00   0.003063 
 6756.00   0.003341 
 6757.00   0.003202 
 6758.00   0.003411 
 6759.00   0.003132 
 6760.00   0.003202 
 6761.00   0.002854 
 6762.00   0.002784 
 6763.00   0.002923 
 6764.00   0.002575 
 6765.00   0.002506 
 6766.00   0.002923 
 6767.00   0.002575 
 6768.00   0.002506 
 6769.00   0.002088 
 6770.00   0.002993 
 6771.00   0.002506 
 6772.00   0.002645 
 6773.00   0.002367 
 6774.00   0.002297 
 6775.00   0.002227 
 6776.00   0.002297 
 6777.00   0.002158 
 6778.00   0.002297 
 6779.00   0.002088 
 6780.00   0.002227 
 6781.00   0.002088 
 6782.00   0.001670 
 6783.00   0.001879 
 6784.00   0.001879 
 6785.00   0.001740 
 6786.00   0.002158 
 6787.00   0.002088 
 6788.00   0.001949 
 6789.00   0.001601 
 6790.00   0.001810 
 6791.00   0.001183 
 6792.00   0.002158 
 6793.00   0.001670 
 6794.00   0.001601 
 6795.00   0.001810 
 6796.00   0.001949 
 6797.00   0.001879 
 6798.00   0.001879 
 6799.00   0.001531 
 6800.00   0.001531 

