#  "== FILTER DATA - LAMBDA 9 SPECTROPHOTOMETER =="
#  "   KITT PEAK NATIONAL OBSERVATORY - NOAO"
#   ------------------------------------------------
#  "FILTER: AND3865 TEMP 81 F             "
#  "DATE: ""11/18/94"   "TIME: ""13: 3: 7"
#  " CWL= "  6652.72A  "FWHM= "   68.19A  "TMAX= "82.76 %
#  "TCUTOFF= " 2.00 %  "SLITSIZE= " 1 A
#  
#  
#  
#  
#  "NPTS= " 201     "DISP= " 1.00A/INTERVAL
 6560.00   0.002235 
 6561.00   0.001631 
 6562.00   0.001752 
 6563.00   0.001692 
 6564.00   0.002235 
 6565.00   0.001873 
 6566.00   0.002054 
 6567.00   0.002417 
 6568.00   0.002356 
 6569.00   0.003323 
 6570.00   0.003021 
 6571.00   0.003021 
 6572.00   0.004531 
 6573.00   0.003867 
 6574.00   0.004410 
 6575.00   0.004652 
 6576.00   0.004833 
 6577.00   0.005377 
 6578.00   0.005498 
 6579.00   0.006283 
 6580.00   0.006464 
 6581.00   0.007612 
 6582.00   0.008458 
 6583.00   0.008881 
 6584.00   0.009969 
 6585.00   0.011298 
 6586.00   0.011539 
 6587.00   0.013835 
 6588.00   0.014923 
 6589.00   0.016735 
 6590.00   0.017581 
 6591.00   0.020179 
 6592.00   0.020723 
 6593.00   0.023623 
 6594.00   0.027791 
 6595.00   0.030449 
 6596.00   0.034256 
 6597.00   0.038666 
 6598.00   0.042412 
 6599.00   0.048755 
 6600.00   0.056489 
 6601.00   0.059993 
 6602.00   0.066759 
 6603.00   0.077815 
 6604.00   0.088026 
 6605.00   0.100592 
 6606.00   0.113702 
 6607.00   0.129290 
 6608.00   0.146810 
 6609.00   0.167170 
 6610.00   0.190611 
 6611.00   0.216107 
 6612.00   0.245710 
 6613.00   0.279725 
 6614.00   0.313014 
 6615.00   0.356634 
 6616.00   0.400797 
 6617.00   0.446411 
 6618.00   0.502296 
 6619.00   0.564101 
 6620.00   0.614125 
 6621.00   0.659981 
 6622.00   0.710669 
 6623.00   0.754471 
 6624.00   0.790962 
 6625.00   0.836515 
 6626.00   0.881102 
 6627.00   0.896931 
 6628.00   0.927924 
 6629.00   0.954870 
 6630.00   0.957588 
 6631.00   0.949432 
 6632.00   0.963146 
 6633.00   0.955897 
 6634.00   0.960669 
 6635.00   0.957105 
 6636.00   0.955111 
 6637.00   0.961817 
 6638.00   0.938376 
 6639.00   0.963026 
 6640.00   0.959642 
 6641.00   0.948465 
 6642.00   0.959582 
 6643.00   0.968826 
 6644.00   0.952574 
 6645.00   0.976740 
 6646.00   0.956078 
 6647.00   0.963871 
 6648.00   0.965623 
 6649.00   0.974203 
 6650.00   0.973478 
 6651.00   0.985379 
 6652.00   0.985923 
 6653.00   0.963509 
 6654.00   0.983204 
 6655.00   0.986225 
 6656.00   0.987917 
 6657.00   0.971544 
 6658.00   0.981754 
 6659.00   0.980607 
 6660.00   1.000000 
 6661.00   0.978250 
 6662.00   0.980667 
 6663.00   0.995288 
 6664.00   0.979157 
 6665.00   0.983748 
 6666.00   0.992206 
 6667.00   0.982963 
 6668.00   0.973296 
 6669.00   0.974323 
 6670.00   0.960126 
 6671.00   0.943270 
 6672.00   0.944116 
 6673.00   0.935053 
 6674.00   0.914331 
 6675.00   0.918318 
 6676.00   0.894998 
 6677.00   0.858084 
 6678.00   0.840382 
 6679.00   0.811261 
 6680.00   0.766977 
 6681.00   0.727827 
 6682.00   0.687530 
 6683.00   0.651281 
 6684.00   0.601559 
 6685.00   0.556791 
 6686.00   0.507008 
 6687.00   0.458374 
 6688.00   0.420312 
 6689.00   0.374638 
 6690.00   0.336576 
 6691.00   0.303468 
 6692.00   0.265768 
 6693.00   0.236286 
 6694.00   0.210246 
 6695.00   0.187349 
 6696.00   0.166747 
 6697.00   0.147777 
 6698.00   0.131042 
 6699.00   0.117025 
 6700.00   0.104459 
 6701.00   0.092980 
 6702.00   0.081501 
 6703.00   0.074130 
 6704.00   0.065793 
 6705.00   0.058362 
 6706.00   0.054495 
 6707.00   0.047366 
 6708.00   0.044587 
 6709.00   0.038545 
 6710.00   0.034739 
 6711.00   0.031295 
 6712.00   0.028818 
 6713.00   0.026039 
 6714.00   0.022958 
 6715.00   0.021689 
 6716.00   0.019816 
 6717.00   0.016856 
 6718.00   0.015889 
 6719.00   0.015104 
 6720.00   0.012748 
 6721.00   0.012385 
 6722.00   0.012023 
 6723.00   0.010633 
 6724.00   0.009908 
 6725.00   0.009183 
 6726.00   0.008519 
 6727.00   0.008217 
 6728.00   0.006706 
 6729.00   0.007008 
 6730.00   0.005739 
 6731.00   0.006162 
 6732.00   0.005256 
 6733.00   0.004894 
 6734.00   0.004773 
 6735.00   0.004531 
 6736.00   0.004410 
 6737.00   0.004169 
 6738.00   0.003262 
 6739.00   0.003021 
 6740.00   0.002598 
 6741.00   0.002840 
 6742.00   0.002235 
 6743.00   0.002417 
 6744.00   0.001571 
 6745.00   0.002296 
 6746.00   0.002235 
 6747.00   0.001631 
 6748.00   0.002054 
 6749.00   0.002115 
 6750.00   0.001994 
 6751.00   0.001752 
 6752.00   0.001269 
 6753.00   0.001571 
 6754.00   0.001148 
 6755.00   0.001269 
 6756.00   0.001390 
 6757.00   0.001148 
 6758.00   0.001269 
 6759.00   0.001148 
 6760.00   0.000725 

